29/10/2021	14:57
Experiment Type:	Sizing
Pseudo Cross Correlation
Scattering angle:	15.0
Duration (s):	60
Wavelength (nm):	660.0
Refractive index:	1.330
Viscosity (mPas):	0.973
Temperature (K):	294.3
Laser intensity (mW):	81.918000
Average Count rate  A (kHz):	67.3
Average Count rate  B (kHz):	64.2
Intercept:	0.3657
Cumulant 1st	-Inf
Cumulant 2nd	-Inf	NaN
Cumulant 3rd	-Inf	NaN

Lag time (s)         g2-1
1.250000E-8	0.421477
2.500000E-8	0.417178
3.750000E-8	0.410731
5.000000E-8	0.362530
6.250000E-8	0.331214
7.500000E-8	0.373889
8.750000E-8	0.370819
1.000000E-7	0.334898
1.125000E-7	0.365907
1.250000E-7	0.364372
1.375000E-7	0.383714
1.500000E-7	0.407661
1.625000E-7	0.384021
1.750000E-7	0.323539
1.875000E-7	0.360074
2.000000E-7	0.357004
2.125000E-7	0.367289
2.375000E-7	0.373889
2.625000E-7	0.372508
2.875000E-7	0.348407
3.125000E-7	0.349482
3.375000E-7	0.377880
3.625000E-7	0.366981
3.875000E-7	0.374043
4.125000E-7	0.358846
4.625000E-7	0.375041
5.125000E-7	0.380106
5.625000E-7	0.358922
6.125000E-7	0.373122
6.625000E-7	0.368440
7.125000E-7	0.380490
7.625000E-7	0.364525
8.125000E-7	0.374964
9.125000E-7	0.373889
1.012500E-6	0.359191
1.112500E-6	0.360649
1.212500E-6	0.373352
1.312500E-6	0.371932
1.412500E-6	0.362376
1.512500E-6	0.374043
1.612500E-6	0.373237
1.812500E-6	0.367787
2.012500E-6	0.372872
2.212500E-6	0.374216
2.412500E-6	0.372450
2.612500E-6	0.360841
2.812500E-6	0.364391
3.012500E-6	0.371932
3.212500E-6	0.379186
3.612500E-6	0.364142
4.012500E-6	0.369946
4.412500E-6	0.364228
4.812500E-6	0.366665
5.212500E-6	0.367922
5.612500E-6	0.369687
6.012500E-6	0.368920
6.412500E-6	0.368819
7.212500E-6	0.362410
8.012500E-6	0.367802
8.812500E-6	0.370158
9.612500E-6	0.367466
1.041250E-5	0.368296
1.121250E-5	0.365600
1.201250E-5	0.371333
1.281250E-5	0.368985
1.441250E-5	0.366100
1.601250E-5	0.368244
1.761250E-5	0.369184
1.921250E-5	0.364620
2.081250E-5	0.367213
2.241250E-5	0.364073
2.401250E-5	0.367906
2.561250E-5	0.364779
2.881250E-5	0.367435
3.201250E-5	0.364184
3.521250E-5	0.362775
3.841250E-5	0.364737
4.161250E-5	0.365400
4.481250E-5	0.365069
4.801250E-5	0.366321
5.121250E-5	0.366724
5.761250E-5	0.366486
6.401250E-5	0.367107
7.041250E-5	0.364620
7.681250E-5	0.364420
8.321250E-5	0.364786
8.961250E-5	0.364226
9.601250E-5	0.362564
0.000102	0.363405
0.000115	0.363322
0.000128	0.363834
0.000141	0.362297
0.000154	0.363099
0.000166	0.362407
0.000179	0.362312
0.000192	0.362727
0.000205	0.362411
0.000230	0.361012
0.000256	0.360731
0.000282	0.360434
0.000307	0.360266
0.000333	0.359932
0.000358	0.358737
0.000384	0.357935
0.000410	0.357543
0.000461	0.356378
0.000512	0.355780
0.000563	0.354935
0.000614	0.353153
0.000666	0.352618
0.000717	0.351407
0.000768	0.349945
0.000819	0.349043
0.000922	0.347378
0.001024	0.345397
0.001126	0.344105
0.001229	0.342388
0.001331	0.340799
0.001434	0.339251
0.001536	0.337569
0.001638	0.335727
0.001843	0.332714
0.002048	0.329913
0.002253	0.326942
0.002458	0.323922
0.002662	0.321039
0.002867	0.318417
0.003072	0.315384
0.003277	0.312924
0.003686	0.307791
0.004096	0.302564
0.004506	0.297489
0.004915	0.292757
0.005325	0.288037
0.005734	0.283386
0.006144	0.278781
0.006554	0.274410
0.007373	0.265924
0.008192	0.257762
0.009011	0.249767
0.009830	0.242202
0.010650	0.234917
0.011469	0.228063
0.012288	0.221284
0.013107	0.214814
0.014746	0.202426
0.016384	0.190314
0.018022	0.179244
0.019661	0.168747
0.021299	0.158606
0.022938	0.149150
0.024576	0.140112
0.026214	0.132095
0.029491	0.116311
0.032768	0.103113
0.036045	0.091595
0.039322	0.081531
0.042598	0.073514
0.045875	0.067148
0.049152	0.061221
0.052429	0.057831
0.058982	0.054110
0.065536	0.051093
0.072090	0.048122
0.078643	0.043068
0.085197	0.037202
0.091750	0.030451
0.098304	0.025041
0.104858	0.023141
0.117965	0.020363
0.131072	0.023362
0.144179	0.023399
0.157286	0.020179
0.170394	0.016021
0.183501	0.018437
0.196608	0.019149
0.209715	0.019937
0.235930	0.022058
0.262144	0.028437
0.288358	0.026483
0.314573	0.023318
0.340787	0.025164
0.367002	0.030239
0.393216	0.033432
0.419430	0.027312
0.471859	0.031356
0.524288	0.030266
0.576717	0.030983
0.629146	0.031426
0.681574	0.027291
0.734003	0.021177
0.786432	0.019808
0.838861	0.021142
0.943718	0.021113
1.048576	0.017650
1.153434	0.022629
1.258291	0.030718
1.363149	0.026048
1.468006	0.022705
1.572864	0.022992
1.677722	0.027161
1.887437	0.026975
2.097152	0.021788
2.306867	0.025313
2.516582	0.024963
2.726298	0.024144
2.936013	0.025815
3.145728	0.028234
3.355443	0.022171
3.774873	0.025657
4.194304	0.029562
4.613734	0.027510
5.033165	0.021097
5.452595	0.023806
5.872025	0.026437
6.291456	0.020142
6.710886	0.021120
7.549747	0.027063
8.388608	0.024242
9.227468	0.018909
10.066330	0.020533
10.905190	0.018783
11.744051	0.026349
12.582912	0.020865
13.421773	0.021176
15.099494	0.027030
16.777216	0.025112
18.454937	0.038724
20.132660	0.050682
21.810381	0.057610
23.488102	0.061126
25.165825	0.064949
26.843546	0.059821
30.198988	0.068428
33.554432	0.090086
36.909874	0.116635
40.265320	0.180279
43.620762	0.230395

Count Rate History (KHz)  CR CHA / CR CHB
0.000000	49.037933	48.313141
0.052429	81.748962	75.874329
0.104858	35.800934	34.599304
0.157286	39.901733	36.964417
0.209715	34.465790	33.512115
0.262144	40.378571	35.839081
0.314573	40.760040	38.013458
0.367002	40.054321	38.490295
0.419430	50.315857	48.694611
0.471859	42.514801	41.294098
0.524288	49.934387	47.512054
0.576717	51.536560	49.438477
0.629146	40.740967	37.403107
0.681574	44.612885	44.765472
0.734003	56.171417	56.324005
0.786432	68.778992	64.258575
0.838861	58.383942	60.272217
0.891290	98.705292	93.078613
0.943718	38.318634	36.640167
0.996147	42.591095	40.798187
1.048576	72.250366	70.991516
1.101005	94.337463	92.277527
1.153434	68.435669	62.427521
1.205862	53.005219	49.324036
1.258291	34.637451	35.018921
1.310720	42.762756	39.958954
1.363149	50.849915	48.122406
1.415578	52.299500	50.067902
1.468006	68.016052	63.858032
1.520435	119.762421	114.078522
1.572864	108.947754	104.789734
1.625293	73.337555	69.656372
1.677722	69.522858	65.498352
1.730150	53.329468	50.029755
1.782579	48.484802	45.356750
1.835008	36.945343	37.136078
1.887437	46.539307	45.604706
1.939866	33.874512	32.386780
1.992294	52.928925	50.125122
2.044723	56.743622	57.182312
2.097152	65.994263	62.122345
2.149581	99.182129	93.307495
2.202010	62.694550	59.108734
2.254438	57.735443	56.819916
2.306867	119.400024	117.626190
2.359296	54.645538	52.890778
2.411725	48.542023	45.738220
2.464154	70.095062	70.133209
2.516582	94.127655	90.141296
2.569011	72.174072	67.062378
2.621440	103.931427	98.743439
2.673869	89.626312	86.936951
2.726298	122.966766	115.814209
2.778726	75.664520	72.689056
2.831155	73.356628	69.332123
2.883584	55.751801	54.378510
2.936013	35.781860	32.691956
2.988442	44.536591	43.773651
3.040870	38.108826	36.563873
3.093299	69.656372	67.329407
3.145728	114.536285	104.446411
3.198157	61.130524	61.225891
3.250586	65.479279	63.076019
3.303014	55.866241	55.713654
3.355443	78.487396	72.708130
3.407872	54.531097	51.860809
3.460301	63.667297	56.838989
3.512730	45.471191	45.471191
3.565158	69.694519	67.100525
3.617587	42.858124	41.809082
3.670016	51.021576	47.054291
3.722445	34.561157	32.634735
3.774874	36.544800	35.705566
3.827302	50.449371	46.672821
3.879731	43.411255	42.438507
3.932160	41.141510	42.724609
3.984589	40.340424	37.193298
4.037018	113.964081	108.280182
4.089446	95.348358	89.874268
4.141875	83.904266	78.678131
4.194304	52.223206	49.400330
4.246733	59.719086	55.465698
4.299162	46.997070	47.264099
4.351590	52.738190	51.136017
4.404019	81.329346	76.675415
4.456448	79.059601	75.073242
4.508877	45.070648	42.667389
4.561306	32.196045	30.765533
4.613734	37.765503	35.324097
4.666163	44.193268	43.315887
4.718592	58.021545	57.907104
4.771021	121.765137	118.789673
4.823450	60.043335	56.686401
4.875878	46.939850	48.351288
4.928307	56.972504	54.969788
4.980736	50.868988	50.621033
5.033165	60.615540	58.917999
5.085594	73.852539	70.915222
5.138022	148.983002	137.786865
5.190451	57.716370	55.198669
5.242880	43.754578	41.179657
5.295309	36.468506	38.700104
5.347738	58.975220	53.215027
5.400166	109.558105	102.062225
5.452595	100.975037	96.378326
5.505024	83.885193	80.223083
5.557453	72.975159	70.629120
5.609882	44.288635	43.811798
5.662310	42.514801	38.032532
5.714739	66.795349	63.285828
5.767168	36.296844	35.629272
5.819597	58.631897	57.945251
5.872026	52.833557	52.013397
5.924454	42.762756	40.531158
5.976883	41.904449	39.119720
6.029312	37.994385	37.059784
6.081741	47.340393	45.566559
6.134170	46.424866	42.438507
6.186598	37.994385	38.738251
6.239027	58.746338	56.190491
6.291456	84.724426	79.727173
6.343885	112.152100	106.678009
6.396314	77.152252	75.511932
6.448742	85.296631	77.953339
6.501171	65.326691	63.266754
6.553600	65.040588	61.855316
6.606029	78.487396	75.893402
6.658458	47.054291	42.686462
6.710886	59.394836	57.983398
6.763315	35.095215	34.179687
6.815744	50.029755	48.313141
6.868173	130.939484	127.563477
6.920602	111.083984	106.067657
6.973030	66.394806	61.817169
7.025459	40.264130	38.566589
7.077888	41.484833	40.340424
7.130317	69.160461	64.411163
7.182746	65.383911	63.266754
7.235174	100.631714	93.021393
7.287603	56.953430	55.713654
7.340032	31.852722	31.833649
7.392461	43.563843	42.057037
7.444890	36.163330	36.373138
7.497318	48.751831	45.986176
7.549747	38.928986	38.585663
7.602176	53.844452	51.422119
7.654605	44.059753	43.277740
7.707034	56.324005	53.997040
7.759462	58.746338	58.364868
7.811891	83.770752	78.735352
7.864320	50.506592	47.740936
7.916749	61.740875	60.653687
7.969178	51.250458	47.454834
8.021606	49.858093	48.027039
8.074035	50.048828	50.258636
8.126464	74.386597	70.285797
8.178893	100.059509	95.520020
8.231322	56.381226	52.623749
8.283750	57.258606	56.457520
8.336179	34.866333	35.438538
8.388608	58.002472	52.700043
8.441037	57.086945	55.122375
8.493466	43.487549	40.817261
8.545894	42.781830	40.531158
8.598323	39.844513	37.822723
8.650752	42.953491	41.751862
8.703181	68.187714	64.582825
8.755610	68.931580	65.422058
8.808038	51.536560	51.250458
8.860467	93.994141	90.446472
8.912896	129.051208	122.032166
8.965325	154.609680	145.492554
9.017754	82.302094	78.334808
9.070182	71.735382	65.193176
9.122611	60.577393	58.898926
9.175040	92.544556	85.563660
9.227469	76.179504	72.059631
9.279898	31.604767	31.375885
9.332326	38.681030	37.574768
9.384755	71.372986	69.675446
9.437184	72.860718	67.405701
9.489613	117.664337	110.397339
9.542042	82.817078	77.991486
9.594470	41.236877	40.054321
9.646899	63.228607	61.416626
9.699328	49.400330	49.095154
9.751757	54.569244	55.770874
9.804186	91.762543	83.999634
9.856614	90.961456	86.727142
9.909043	46.939850	48.389435
9.961472	59.490204	59.909821
10.013901	97.942352	94.184875
10.066330	73.337555	69.255829
10.118758	37.879944	36.354065
10.171187	69.942474	66.909790
10.223616	59.833527	57.449341
10.276045	39.596558	38.337708
10.328474	54.664612	51.498413
10.380902	104.522705	103.302002
10.433331	69.751740	67.958832
10.485760	75.931549	70.877075
10.538189	83.961487	81.558228
10.590618	55.313110	53.310394
10.643046	37.975311	37.899017
10.695475	58.403015	56.838989
10.747904	89.912415	87.585449
10.800333	59.642792	57.067871
10.852762	40.130615	39.005280
10.905190	33.416748	32.291412
10.957619	36.582947	35.648346
11.010048	39.596558	40.225983
11.062477	48.465729	46.977997
11.114906	66.890717	65.212250
11.167334	68.225861	64.468384
11.219763	38.032532	37.002563
11.272192	37.078857	32.920837
11.324621	48.217773	47.950745
11.377050	56.571960	54.225922
11.429478	42.762756	41.847229
11.481907	47.874451	45.738220
11.534336	116.767883	107.994080
11.586765	51.326752	48.751831
11.639194	65.803528	61.206818
11.691622	60.138702	57.487488
11.744051	78.029633	76.503754
11.796480	54.893494	53.749084
11.848909	70.209503	66.127777
11.901338	55.255890	54.798126
11.953766	55.866241	53.482056
12.006195	45.490265	45.223236
12.058624	130.844116	123.310089
12.111053	71.506500	69.046021
12.163482	50.926208	47.092438
12.215910	57.945251	56.076050
12.268339	66.509247	60.672760
12.320768	53.482056	51.651001
12.373197	83.065033	78.830719
12.425626	80.490112	74.310303
12.478054	39.806366	38.032532
12.530483	40.149689	39.482117
12.582912	54.492950	51.898956
12.635341	39.615631	36.468506
12.687770	81.920624	78.601837
12.740198	74.520111	71.220398
12.792627	89.111328	84.457397
12.845056	95.958710	86.231232
12.897485	43.163300	41.885376
12.949914	36.392212	35.552979
13.002342	46.482086	46.539307
13.054771	65.193176	63.095093
13.107200	55.789948	53.310394
13.159629	50.373077	48.732758
13.212058	65.803528	62.942505
13.264486	41.465759	39.176941
13.316915	45.585632	43.888092
13.369344	45.471191	41.904449
13.421773	41.065216	39.482117
13.474202	45.719147	44.288635
13.526630	56.953430	55.541992
13.579059	56.037903	52.909851
13.631488	107.002258	102.825165
13.683917	71.735382	68.359375
13.736346	80.375671	79.765320
13.788774	49.819946	47.149658
13.841203	34.942627	32.520294
13.893632	29.983521	31.585693
13.946061	44.803619	43.525696
13.998490	41.999817	40.397644
14.050918	48.351288	46.405792
14.103347	57.659149	56.018829
14.155776	62.828064	57.601929
14.208205	52.509308	52.661896
14.260634	41.770935	41.522980
14.313062	36.621094	33.855438
14.365491	44.517517	43.468475
14.417920	78.372955	75.817108
14.470349	61.035156	56.438446
14.522778	37.956238	34.866333
14.575206	42.095184	40.626526
14.627635	63.800812	62.713623
14.680064	47.779083	49.266815
14.732493	36.582947	34.713745
14.784922	38.757324	40.645599
14.837350	53.787231	53.749084
14.889779	91.018677	87.337494
14.942208	69.236755	65.326691
14.994637	69.770813	65.612793
15.047066	104.751587	96.702576
15.099494	70.896149	68.531036
15.151923	55.007935	50.849915
15.204352	47.340393	45.394897
15.256781	83.789825	77.056885
15.309210	56.915283	52.204132
15.361638	68.664551	65.479279
15.414067	44.918060	44.250488
15.466496	33.283234	30.975342
15.518925	42.896271	41.160583
15.571354	59.566498	53.844452
15.623782	111.217499	104.293823
15.676211	48.713684	45.948029
15.728640	71.907043	68.283081
15.781069	32.749176	32.482147
15.833498	58.574677	55.046082
15.885926	53.234100	53.653717
15.938355	68.931580	68.912506
15.990784	143.413544	132.923126
16.043213	53.062439	51.612854
16.095642	66.184998	61.550140
16.148070	49.114227	47.054291
16.200499	51.879883	50.830841
16.252928	51.708221	50.373077
16.305357	48.122406	46.482086
16.357786	62.694550	59.490204
16.410214	79.975128	74.234009
16.462643	146.369934	139.160156
16.515072	80.337524	76.427460
16.567501	55.675507	51.002502
16.619930	67.539215	65.059662
16.672358	33.645630	32.978058
16.724787	88.882446	89.263916
16.777216	54.893494	52.776337
16.829645	50.449371	47.149658
16.882074	49.667358	49.457550
16.934502	32.711029	31.185150
16.986931	41.351318	41.007996
17.039360	68.416595	63.495636
17.091789	68.511963	66.184998
17.144218	78.983307	75.683594
17.196646	52.947998	51.784515
17.249075	39.176941	39.386749
17.301504	64.601898	63.533783
17.353933	50.773621	49.457550
17.406362	61.035156	58.403015
17.458790	71.372986	70.400238
17.511219	45.356750	43.849945
17.563648	41.580200	39.329529
17.616077	61.435699	60.024261
17.668506	49.381256	46.768188
17.720934	54.931641	53.100586
17.773363	55.027008	51.345825
17.825792	45.871735	44.860840
17.878221	35.057068	33.645630
17.930650	34.313202	33.321381
17.983078	68.016052	63.610077
18.035507	52.757263	50.811768
18.087936	61.511993	58.670044
18.140365	58.441162	55.656433
18.192794	47.473907	45.509338
18.245222	36.277771	35.057068
18.297651	46.253204	44.593811
18.350080	50.964355	50.201416
18.402509	36.354065	34.847260
18.454938	37.727356	36.201477
18.507366	37.040710	35.457611
18.559795	47.492981	45.413971
18.612224	39.482117	38.337708
18.664653	38.661957	37.612915
18.717082	46.749115	44.326782
18.769510	61.683655	60.539246
18.821939	31.852722	30.136108
18.874368	39.138794	38.394928
18.926797	49.095154	47.702789
18.979226	62.007904	58.536530
19.031654	58.193207	58.193207
19.084083	62.961578	59.528351
19.136512	50.926208	47.950745
19.188941	45.719147	41.999817
19.241370	43.525696	44.918060
19.293798	72.078705	68.931580
19.346227	59.604645	58.155060
19.398656	92.658997	86.727142
19.451085	61.264038	60.310364
19.503514	41.580200	39.176941
19.555942	39.253235	39.081573
19.608371	50.659180	49.209595
19.660800	64.125061	62.103271
19.713229	77.247620	73.966980
19.765658	51.441193	50.163269
19.818086	48.980713	47.855377
19.870515	52.433014	50.334930
19.922944	44.307709	42.610168
19.975373	63.266754	63.915253
20.027802	44.269562	42.095184
20.080230	39.653778	39.691925
20.132659	39.234161	38.356781
20.185088	57.201385	56.762695
20.237517	31.089783	30.612946
20.289946	109.767914	104.007721
20.342374	108.032227	104.446411
20.394803	91.037750	86.421967
20.447232	79.345703	74.462891
20.499661	45.433044	44.136047
20.552090	73.966980	70.400238
20.604518	43.582916	41.351318
20.656947	62.446594	60.729980
20.709376	60.520172	58.803558
20.761805	33.321381	32.081604
20.814234	61.168671	58.670044
20.866662	68.264008	67.825317
20.919091	88.577271	85.620880
20.971520	69.465637	65.212250
21.023949	95.291138	91.381073
21.076378	66.375732	63.228607
21.128806	95.996857	91.800690
21.181235	51.898956	50.106049
21.233664	36.449432	36.315918
21.286093	56.171417	53.730011
21.338522	56.762695	55.103302
21.390950	62.084198	59.299469
21.443379	52.127838	48.866272
21.495808	58.937073	55.446625
21.548237	38.166046	37.212372
21.600666	46.520233	46.977997
21.653094	58.498383	57.544708
21.705523	37.631989	36.411285
21.757952	54.626465	51.479340
21.810381	77.362061	74.729919
21.862810	89.740753	86.402893
21.915238	46.005249	45.776367
21.967667	51.956177	50.239563
22.020096	53.710937	53.005219
22.072525	37.860870	37.021637
22.124954	44.727325	44.345856
22.177382	80.585480	77.114105
22.229811	34.523010	35.133362
22.282240	71.125031	68.798065
22.334669	68.645477	64.048767
22.387098	37.574768	35.953522
22.439526	76.026917	70.762634
22.491955	89.263916	81.081390
22.544384	66.051483	63.800812
22.596813	45.566559	43.907166
22.649242	95.806122	88.062286
22.701670	56.324005	53.596497
22.754099	62.389374	57.964325
22.806528	53.863525	54.359436
22.858957	35.648346	36.506653
22.911386	81.539154	76.923370
22.963814	112.285614	107.021332
23.016243	61.836243	56.514740
23.068672	130.367279	124.835968
23.121101	56.381226	52.356720
23.173530	61.836243	58.422089
23.225958	59.242249	58.002472
23.278387	56.438446	53.558350
23.330816	70.686340	67.062378
23.383245	47.855377	45.814514
23.435674	44.670105	43.315887
23.488102	58.498383	58.116913
23.540531	41.770935	39.176941
23.592960	39.386749	38.681030
23.645389	122.604370	117.340088
23.697818	89.588165	84.552765
23.750246	43.601990	43.792725
23.802675	91.876984	86.917877
23.855104	46.634674	44.841766
23.907533	43.506622	39.882660
23.959962	46.005249	45.967102
24.012390	42.781830	39.424896
24.064819	48.503876	48.751831
24.117248	52.700043	50.964355
24.169677	91.609955	87.337494
24.222106	144.691467	135.192871
24.274534	75.225830	69.313049
24.326963	73.509216	72.021484
24.379392	62.274933	60.558319
24.431821	83.446503	82.035065
24.484250	50.678253	47.950745
24.536678	34.542084	34.141541
24.589107	55.694580	53.195953
24.641536	72.822571	68.416595
24.693965	54.836273	54.397583
24.746394	64.907074	62.885284
24.798822	43.678284	40.035248
24.851251	57.430267	55.751801
24.903680	40.473938	38.928986
24.956109	40.149689	38.452148
25.008538	32.291412	32.958984
25.060966	44.307709	43.220520
25.113395	79.917908	76.084137
25.165824	52.471161	50.487518
25.218253	98.571777	95.367432
25.270682	91.667175	88.577271
25.323110	59.928894	57.926178
25.375539	61.893463	58.727264
25.427968	47.664642	47.130585
25.480397	74.768066	71.144104
25.532826	66.223145	62.808990
25.585254	47.245026	46.443939
25.637683	33.321381	31.394958
25.690112	38.299561	37.250519
25.742541	41.122437	37.212372
25.794970	90.351105	85.906982
25.847398	118.904114	113.506317
25.899827	75.016022	73.184967
25.952256	51.479340	48.236847
26.004685	60.291290	57.125092
26.057114	58.784485	57.468414
26.109542	121.364594	114.307404
26.161971	129.241943	126.132965
26.214400	72.765350	71.182251
26.266829	32.291412	33.683777
26.319258	42.800903	42.572021
