29/10/2021	14:57
Experiment Type:	Sizing
Pseudo Cross Correlation
Scattering angle:	15.0
Duration (s):	60
Wavelength (nm):	660.0
Refractive index:	1.330
Viscosity (mPas):	0.973
Temperature (K):	294.3
Laser intensity (mW):	81.918000
Average Count rate  A (kHz):	67.3
Average Count rate  B (kHz):	64.2
Intercept:	0.3657
Cumulant 1st	-Inf
Cumulant 2nd	-Inf	NaN
Cumulant 3rd	-Inf	NaN

Lag time (s)         g2-1
1.250000E-8	0.440421
2.500000E-8	0.421649
3.750000E-8	0.396219
5.000000E-8	0.376726
6.250000E-8	0.375849
7.500000E-8	0.391685
8.750000E-8	0.389885
1.000000E-7	0.385477
1.125000E-7	0.385677
1.250000E-7	0.379689
1.375000E-7	0.389837
1.500000E-7	0.402543
1.625000E-7	0.395266
1.750000E-7	0.375143
1.875000E-7	0.397681
2.000000E-7	0.372798
2.125000E-7	0.374077
2.375000E-7	0.396357
2.625000E-7	0.385677
2.875000E-7	0.371107
3.125000E-7	0.375174
3.375000E-7	0.396359
3.625000E-7	0.383687
3.875000E-7	0.376520
4.125000E-7	0.374906
4.625000E-7	0.388644
5.125000E-7	0.376171
5.625000E-7	0.378532
6.125000E-7	0.381193
6.625000E-7	0.390041
7.125000E-7	0.376825
7.625000E-7	0.380534
8.125000E-7	0.378740
9.125000E-7	0.373902
1.012500E-6	0.380114
1.112500E-6	0.378170
1.212500E-6	0.384011
1.312500E-6	0.385449
1.412500E-6	0.373658
1.512500E-6	0.382858
1.612500E-6	0.386746
1.812500E-6	0.379143
2.012500E-6	0.379504
2.212500E-6	0.382894
2.412500E-6	0.380175
2.612500E-6	0.377024
2.812500E-6	0.381358
3.012500E-6	0.385745
3.212500E-6	0.384109
3.612500E-6	0.379707
4.012500E-6	0.377393
4.412500E-6	0.379299
4.812500E-6	0.380517
5.212500E-6	0.382774
5.612500E-6	0.379827
6.012500E-6	0.379054
6.412500E-6	0.381252
7.212500E-6	0.379993
8.012500E-6	0.379302
8.812500E-6	0.380013
9.612500E-6	0.378985
1.041250E-5	0.381190
1.121250E-5	0.379766
1.201250E-5	0.381200
1.281250E-5	0.380188
1.441250E-5	0.378862
1.601250E-5	0.379483
1.761250E-5	0.381601
1.921250E-5	0.378865
2.081250E-5	0.379234
2.241250E-5	0.378438
2.401250E-5	0.379574
2.561250E-5	0.379024
2.881250E-5	0.380071
3.201250E-5	0.378523
3.521250E-5	0.377811
3.841250E-5	0.379021
4.161250E-5	0.379375
4.481250E-5	0.378311
4.801250E-5	0.378936
5.121250E-5	0.378893
5.761250E-5	0.378353
6.401250E-5	0.378653
7.041250E-5	0.377638
7.681250E-5	0.377487
8.321250E-5	0.378258
8.961250E-5	0.377238
9.601250E-5	0.376658
0.000102	0.376140
0.000115	0.376370
0.000128	0.376222
0.000141	0.376148
0.000154	0.375410
0.000166	0.374900
0.000179	0.375126
0.000192	0.375040
0.000205	0.374819
0.000230	0.374105
0.000256	0.373018
0.000282	0.373363
0.000307	0.372203
0.000333	0.372125
0.000358	0.371137
0.000384	0.370759
0.000410	0.369838
0.000461	0.368983
0.000512	0.367851
0.000563	0.366858
0.000614	0.365966
0.000666	0.364538
0.000717	0.363623
0.000768	0.362665
0.000819	0.361671
0.000922	0.359834
0.001024	0.357907
0.001126	0.356141
0.001229	0.354296
0.001331	0.352626
0.001434	0.350798
0.001536	0.349371
0.001638	0.347582
0.001843	0.344507
0.002048	0.341503
0.002253	0.338585
0.002458	0.335522
0.002662	0.332571
0.002867	0.329631
0.003072	0.326793
0.003277	0.324202
0.003686	0.318978
0.004096	0.313565
0.004506	0.308542
0.004915	0.303658
0.005325	0.298799
0.005734	0.294140
0.006144	0.289531
0.006554	0.284980
0.007373	0.276380
0.008192	0.267887
0.009011	0.259660
0.009830	0.251761
0.010650	0.243963
0.011469	0.236695
0.012288	0.229730
0.013107	0.222948
0.014746	0.209766
0.016384	0.197220
0.018022	0.185761
0.019661	0.174732
0.021299	0.164434
0.022938	0.154670
0.024576	0.145339
0.026214	0.137022
0.029491	0.121371
0.032768	0.108102
0.036045	0.096436
0.039322	0.086241
0.042598	0.077342
0.045875	0.069642
0.049152	0.062599
0.052429	0.057759
0.058982	0.051103
0.065536	0.045295
0.072090	0.040222
0.078643	0.033993
0.085197	0.027960
0.091750	0.022746
0.098304	0.019316
0.104858	0.018001
0.117965	0.017022
0.131072	0.019487
0.144179	0.021564
0.157286	0.021239
0.170394	0.018747
0.183501	0.019911
0.196608	0.020023
0.209715	0.020601
0.235930	0.021721
0.262144	0.023013
0.288358	0.020030
0.314573	0.016509
0.340787	0.016664
0.367002	0.020599
0.393216	0.024600
0.419430	0.023701
0.471859	0.019361
0.524288	0.019349
0.576717	0.025077
0.629146	0.023033
0.681574	0.018047
0.734003	0.021601
0.786432	0.019470
0.838861	0.016274
0.943718	0.020168
1.048576	0.014876
1.153434	0.017901
1.258291	0.022165
1.363149	0.020675
1.468006	0.015313
1.572864	0.016446
1.677722	0.018484
1.887437	0.021549
2.097152	0.018024
2.306867	0.018986
2.516582	0.024568
2.726298	0.021046
2.936013	0.018790
3.145728	0.023567
3.355443	0.018832
3.774873	0.019067
4.194304	0.023362
4.613734	0.022351
5.033165	0.020870
5.452595	0.019402
5.872025	0.023853
6.291456	0.019722
6.710886	0.019817
7.549747	0.023751
8.388608	0.022912
9.227468	0.019902
10.066330	0.019383
10.905190	0.020518
11.744051	0.020476
12.582912	0.019930
13.421773	0.021245
15.099494	0.020300
16.777216	0.020655
18.454937	0.026150
20.132660	0.030811
21.810381	0.034740
23.488102	0.033592
25.165825	0.035144
26.843546	0.037857
30.198988	0.027273
33.554432	0.020437
36.909874	-0.000800
40.265320	0.005660
43.620762	0.005735

Count Rate History (KHz)  CR CHA / CR CHB
0.000000	97.618103	93.237559
0.052429	72.650909	69.605509
0.104858	37.352244	36.125183
0.157286	56.171417	52.560171
0.209715	57.703654	55.478414
0.262144	59.998830	55.847168
0.314573	48.033396	45.973460
0.367002	87.884267	85.048676
0.419430	81.933340	76.872508
0.471859	80.451965	77.635447
0.524288	110.193888	104.122162
0.576717	53.431193	50.195058
0.629146	57.144165	54.524740
0.681574	48.402151	46.577453
0.734003	49.235026	48.554738
0.786432	67.653656	65.205892
0.838861	76.243083	73.636373
0.891290	83.942413	79.243978
0.943718	70.641836	66.343943
0.996147	58.135986	56.463877
1.048576	59.235891	57.436625
1.101005	60.221354	59.280396
1.153434	51.593781	47.683716
1.205862	56.603750	55.052440
1.258291	51.879883	50.512950
1.310720	52.903493	51.015218
1.363149	68.003337	65.720876
1.415578	72.657267	69.211324
1.468006	70.565541	66.432953
1.520435	107.975006	100.529989
1.572864	104.007721	99.112193
1.625293	60.653686	56.870779
1.677722	50.551097	48.631032
1.730150	58.231354	54.931641
1.782579	50.042470	47.804514
1.835008	70.921580	67.005157
1.887437	63.368480	60.838063
1.939866	44.803619	42.610169
1.992294	44.161479	43.106079
2.044723	58.917999	57.690938
2.097152	75.791677	72.491964
2.149581	84.431966	79.771678
2.202010	55.847168	52.776337
2.254438	64.150492	61.804454
2.306867	77.953339	76.878866
2.359296	48.370361	46.787262
2.411725	43.601990	42.209625
2.464154	74.278514	73.890686
2.516582	85.926056	81.170400
2.569011	73.076884	69.255829
2.621440	73.674520	70.800781
2.673869	86.599986	81.609090
2.726298	79.841614	75.295766
2.778726	93.879700	88.411967
2.831155	68.880717	65.600077
2.883584	53.380330	50.875346
2.936013	39.265951	37.949880
2.988442	54.677328	53.240458
3.040870	79.364777	75.397491
3.093299	65.288544	63.673655
3.145728	72.078705	67.545573
3.198157	66.598256	66.204071
3.250586	70.985158	68.206787
3.303014	63.330332	61.651866
3.355443	63.597361	60.869853
3.407872	60.443878	59.134165
3.460301	55.910746	53.539276
3.512730	50.811767	49.006144
3.565158	79.752604	76.586405
3.617587	65.568288	61.931610
3.670016	53.520203	51.288605
3.722445	53.660075	50.938924
3.774874	39.380391	39.087931
3.827302	51.174164	48.567454
3.879731	37.790934	37.047068
3.932160	39.800008	40.111542
3.984589	57.036082	52.827199
4.037018	84.431966	80.362956
4.089446	76.344808	72.116852
4.141875	80.979665	76.179504
4.194304	90.891520	85.970561
4.246733	82.607270	77.946981
4.299162	81.259410	78.589121
4.351590	74.164073	71.105957
4.404019	68.925222	65.307617
4.456448	62.974294	59.649150
4.508877	48.529307	47.988892
4.561306	45.744578	43.512980
4.613734	48.370361	46.062470
4.666163	45.337677	44.212341
4.718592	57.417552	56.298574
4.771021	82.524618	78.519185
4.823450	48.681895	46.342214
4.875878	49.006144	47.976176
4.928307	47.950745	45.979818
4.980736	71.729024	70.082347
5.033165	50.532023	48.993429
5.085594	50.881704	48.910777
5.138022	88.933309	83.662669
5.190451	62.071483	59.515635
5.242880	42.603811	40.944417
5.295309	39.062500	38.204193
5.347738	48.103333	45.865377
5.400166	63.050588	59.591929
5.452595	66.490174	63.660939
5.505024	79.657237	76.770782
5.557453	60.939789	57.544708
5.609882	53.736369	51.638285
5.662310	56.953430	53.011576
5.714739	64.137777	60.997009
5.767168	37.892659	37.460327
5.819597	59.401194	58.472951
5.872026	81.532796	78.366597
5.924454	65.886179	62.821706
5.976883	48.955281	46.780904
6.029312	61.531067	58.981577
6.081741	56.076050	54.098765
6.134170	57.309469	53.507487
6.186598	52.407583	51.231384
6.239027	68.283081	64.926147
6.291456	76.745351	72.555542
6.343885	64.735413	61.976115
6.396314	60.443878	58.174133
6.448742	82.963308	77.679952
6.501171	53.431193	51.498413
6.553600	72.313944	68.950653
6.606029	77.031453	73.102315
6.658458	46.799978	43.385824
6.710886	67.577362	65.727234
6.763315	43.671926	42.756398
6.815744	97.637177	92.945099
6.868173	85.233053	82.454681
6.920602	73.108673	69.980621
6.973030	57.442983	54.880778
7.025459	50.849915	49.095154
7.077888	51.364899	48.662822
7.130317	62.650045	60.265859
7.182746	73.610942	69.440206
7.235174	124.429067	116.882324
7.287603	53.176880	51.186880
7.340032	47.518412	46.787262
7.392461	72.708130	68.651835
7.444890	54.302216	53.329468
7.497318	56.050618	54.384868
7.549747	55.141449	53.666433
7.602176	70.540110	67.176819
7.654605	50.856272	48.453013
7.707034	51.898956	49.680074
7.759462	57.023366	57.595571
7.811891	73.146820	69.389343
7.864320	61.918895	59.064229
7.916749	66.293080	64.525604
7.969178	51.371257	48.650106
8.021606	56.374868	53.621928
8.074035	42.018890	40.899912
8.126464	66.693624	62.987010
8.178893	78.112284	73.401134
8.231322	56.107839	53.087870
8.283750	53.113302	51.085154
8.336179	76.395670	73.178609
8.388608	59.763590	56.285858
8.441037	55.211385	52.045186
8.493466	76.662700	73.293050
8.545894	74.895223	70.444743
8.598323	48.300425	47.334035
8.650752	57.843526	56.241353
8.703181	74.558258	71.163177
8.755610	77.889760	74.710846
8.808038	87.693532	85.042318
8.860467	92.004140	88.195801
8.912896	83.045959	79.644521
8.965325	88.532766	84.915161
9.017754	73.248546	70.451101
9.070182	65.167745	60.017903
9.122611	62.389374	60.431163
9.175040	70.896149	66.680908
9.227469	83.147685	78.283946
9.279898	68.976085	64.919790
9.332326	43.907165	42.158763
9.384755	53.564708	52.127838
9.437184	62.808990	58.345795
9.489613	129.350026	121.002197
9.542042	59.121450	56.902568
9.594470	42.603810	40.353139
9.646899	52.096049	50.589244
9.699328	46.780904	45.115153
9.751757	53.755442	52.598318
9.804186	64.888000	61.060588
9.856614	72.994232	69.370270
9.909043	47.925313	47.880809
9.961472	85.080465	83.300273
10.013901	82.963308	79.320272
10.066330	58.644613	56.056976
10.118758	51.174164	49.254100
10.171187	61.651865	59.967041
10.223616	67.068736	63.902537
10.276045	55.351257	53.310394
10.328474	50.970713	49.571991
10.380902	67.183177	64.309438
10.433331	62.675476	60.151418
10.485760	53.202311	50.563812
10.538189	66.960653	64.608256
10.590618	75.855255	72.549184
10.643046	80.254873	76.166789
10.695475	71.290334	67.691803
10.747904	96.708934	92.093150
10.800333	57.671865	54.499308
10.852762	45.897166	44.752757
10.905190	77.584585	73.382060
10.957619	55.745443	54.537455
11.010048	53.513845	52.096049
11.062477	42.743683	41.255951
11.114906	62.923431	60.113271
11.167334	72.733561	68.333944
11.219763	70.743561	67.685445
11.272192	61.365763	58.339437
11.324621	70.114135	67.024231
11.377050	68.314870	66.432953
11.429478	52.331289	50.112406
11.481907	72.625478	69.236755
11.534336	72.364807	68.588257
11.586765	67.672730	65.542857
11.639194	91.336568	87.114970
11.691622	58.472951	56.114197
11.744051	65.072378	63.381195
11.796480	61.397552	59.159597
11.848909	60.869853	57.926178
11.901338	64.093272	61.047872
11.953766	55.096944	53.265890
12.006195	85.779826	80.636342
12.058624	89.562734	85.945129
12.111053	71.805318	69.115957
12.163482	48.154195	45.477549
12.215910	50.341288	49.959818
12.268339	67.596436	63.133240
12.320768	82.486471	79.129537
12.373197	66.178640	63.279470
12.425626	69.217682	65.294902
12.478054	48.058828	45.833588
12.530483	40.728251	39.157867
12.582912	58.231353	56.349436
12.635341	62.669118	59.312185
12.687770	70.209503	67.488352
12.740198	65.657298	63.521067
12.792627	60.698191	56.826274
12.845056	72.015127	67.017873
12.897485	51.034292	49.756368
12.949914	43.449402	42.724610
13.002342	71.735382	69.014232
13.054771	69.071452	65.854391
13.107200	51.460266	48.542023
13.159629	50.048828	47.486623
13.212058	70.959727	67.590078
13.264486	77.317556	74.011485
13.316915	70.501963	66.998800
13.369344	86.631775	80.369313
13.421773	64.818064	61.047872
13.474202	61.060588	58.333079
13.526630	82.562764	79.542796
13.579059	94.807943	89.645386
13.631488	80.833435	77.883402
13.683917	92.811584	87.966919
13.736346	97.541809	93.720754
13.788774	69.834391	67.596435
13.841203	76.535543	71.538289
13.893632	46.952566	46.068827
13.946061	72.873433	68.963369
13.998490	67.481995	64.322154
14.050918	47.410329	45.852661
14.103347	52.738190	51.116943
14.155776	66.210429	63.139598
14.208205	71.175893	68.855286
14.260634	64.703623	62.802633
14.313062	52.204132	50.551097
14.365491	51.282247	48.319499
14.417920	79.695383	75.861613
14.470349	73.502858	68.200429
14.522778	58.746338	55.993398
14.575206	71.570079	69.052378
14.627635	59.534709	57.093303
14.680064	58.072408	57.036082
14.732493	58.873495	55.834452
14.784922	55.376689	53.100586
14.837350	71.983337	69.872538
14.889779	81.278483	77.336629
14.942208	93.288422	88.774363
14.994637	59.839884	56.641897
15.047066	91.991425	86.174011
15.099494	91.349284	87.159475
15.151923	70.222219	65.364838
15.204352	87.852478	83.853404
15.256781	98.094940	92.690786
15.309210	74.558258	70.571899
15.361638	64.563751	61.302185
15.414067	49.374898	47.925313
15.466496	55.319468	53.354899
15.518925	57.417552	54.925283
15.571354	82.817078	76.274872
15.623782	117.460887	112.514496
15.676211	64.538320	60.583750
15.728640	75.492859	71.976979
15.781069	65.174103	63.056946
15.833498	57.290395	54.473877
15.885926	43.951670	42.870839
15.938355	60.946147	59.865316
15.990784	103.085836	98.864237
16.043213	62.726339	60.291290
16.095642	52.064260	49.718221
16.148070	56.743622	54.550171
16.200499	55.605570	53.685506
16.252928	56.425730	54.601033
16.305357	56.063334	52.445730
16.357786	45.134227	44.492086
16.410214	63.597361	60.901642
16.462643	118.459066	113.035838
16.515072	82.244873	77.463786
16.567501	73.382060	70.559184
16.619930	69.815318	66.858927
16.672358	37.631989	35.762787
16.724787	82.912445	80.146790
16.777216	49.158732	48.287710
16.829645	51.523844	49.438476
16.882074	50.493876	47.696431
16.934502	46.437581	44.644674
16.986931	44.428508	42.800904
17.039360	48.294067	46.068827
17.091789	61.601003	58.530172
17.144218	74.685415	72.619120
17.196646	67.838033	63.896179
17.249075	71.474711	68.429311
17.301504	56.406657	55.452982
17.353933	61.486562	57.697296
17.406362	48.891703	46.971639
17.458790	47.200521	46.730042
17.511219	46.367645	44.987996
17.563648	61.105092	58.771769
17.616077	52.890778	50.805409
17.668506	45.935313	44.218699
17.720934	58.809916	55.650075
17.773363	60.882568	58.021545
17.825792	59.312185	56.654612
17.878221	44.714610	42.533875
17.930650	44.562022	43.964386
17.983078	63.330332	59.134165
18.035507	75.060527	71.258545
18.087936	72.949727	70.673625
18.140365	60.450236	57.481130
18.192794	70.317586	66.680908
18.245222	83.967845	78.264872
18.297651	61.645508	59.057872
18.350080	50.423940	48.306783
18.402509	47.849019	45.356751
18.454938	59.916178	55.910746
18.507366	75.645447	71.862539
18.559795	63.317617	62.052409
18.612224	46.857198	46.164195
18.664653	50.760905	48.828125
18.717082	46.157837	43.894450
18.769510	53.176880	52.604676
18.821939	50.888062	48.262278
18.874368	48.885345	47.321320
18.926797	55.548350	54.060618
18.979226	90.052287	84.126791
19.031654	59.070587	57.493846
19.084083	67.952474	63.800812
19.136512	68.626404	65.708161
19.188941	46.100617	43.512980
19.241370	56.056976	53.831736
19.293798	68.620046	65.657298
19.346227	69.249471	65.542857
19.398656	105.590820	99.239349
19.451085	64.888001	62.459310
19.503514	62.713623	60.793559
19.555942	58.135986	56.126912
19.608371	62.599182	60.240428
19.660800	66.140493	62.961578
19.713229	76.033275	72.434743
19.765658	53.418478	50.799052
19.818086	76.141357	72.911580
19.870515	59.280395	57.226817
19.922944	80.763499	77.177683
19.975373	81.958771	78.449249
20.027802	67.996979	64.779917
20.080230	49.368540	48.160553
20.132659	53.386688	50.760905
20.185088	65.199534	63.985189
20.237517	37.810008	36.805471
20.289946	83.223979	78.500112
20.342374	122.330984	115.935008
20.394803	84.508260	79.816183
20.447232	86.599986	81.939697
20.499661	63.991546	60.691834
20.552090	79.447428	75.550079
20.604518	58.199564	55.713654
20.656947	73.897044	69.681803
20.709376	69.599152	66.528320
20.761805	44.314067	40.976207
20.814234	60.405731	58.155060
20.866662	91.412862	87.858836
20.919091	73.534648	71.798960
20.971520	60.221354	56.947072
21.023949	66.089630	63.298543
21.076378	66.960652	64.525604
21.128806	88.977814	84.902445
21.181235	46.977997	45.356751
21.233664	52.655538	51.364899
21.286093	53.799947	50.811767
21.338522	53.971608	52.433014
21.390950	51.892599	49.571991
21.443379	46.393076	45.375824
21.495808	61.372121	56.947072
21.548237	46.475728	45.534770
21.600666	66.687266	63.584646
21.653094	47.747294	46.628316
21.705523	55.408478	54.162343
21.757952	59.547424	57.652791
21.810381	102.672577	97.001393
21.862810	67.075093	65.581004
21.915238	43.519338	42.082469
21.967667	63.501994	60.304006
22.020096	47.105153	46.666463
22.072525	46.056112	45.286814
22.124954	65.994263	63.368479
22.177382	58.161418	55.910746
22.229811	59.089660	58.148702
22.282240	64.620972	61.842601
22.334669	66.947937	63.552857
22.387098	56.413015	53.354899
22.439526	81.577301	77.234904
22.491955	119.902293	111.535390
22.544384	105.005900	101.776123
22.596813	66.534678	63.190460
22.649242	68.937938	64.722697
22.701670	69.440206	67.933401
22.754099	87.375641	82.607269
22.806528	96.537272	92.474620
22.858957	49.584706	48.809052
22.911386	75.047811	71.125030
22.963814	128.002167	119.762421
23.016243	87.890625	82.677205
23.068672	85.703532	81.202189
23.121101	71.633657	67.920685
23.173530	59.115092	57.837168
23.225958	56.927999	55.548350
23.278387	82.696279	78.620911
23.330816	79.644521	74.907939
23.383245	50.582886	48.014323
23.435674	58.523814	57.137807
23.488102	58.466593	55.255890
23.540531	79.326630	76.198578
23.592960	104.980469	99.455516
23.645389	130.716960	124.327342
23.697818	120.735168	115.305583
23.750246	98.139445	94.629924
23.802675	74.017843	69.853465
23.855104	72.650909	69.592794
23.907533	64.055125	60.354869
23.959962	53.195953	51.714579
24.012390	63.050588	59.916178
24.064819	64.385732	62.713623
24.117248	53.965251	51.536560
24.169677	72.600047	69.700877
24.222106	107.021332	101.445516
24.274534	86.943308	82.225799
24.326963	80.356598	77.050527
24.379392	90.796153	87.992350
24.431821	62.758128	61.880748
24.484250	52.878062	50.786336
24.536678	46.863556	44.994354
24.589107	80.280304	76.109568
24.641536	73.032379	68.016052
24.693965	57.957967	55.541992
24.746394	70.902506	67.958832
24.798822	75.893402	73.769887
24.851251	84.425608	83.128611
24.903680	49.896240	47.651927
24.956109	87.286632	82.912445
25.008538	80.235799	75.480143
25.060966	78.983307	74.310303
25.113395	75.073242	71.163177
25.165824	71.061452	66.401164
25.218253	73.706309	70.393880
25.270682	77.997843	74.583690
25.323110	60.119629	57.652791
25.375539	67.774455	64.894358
25.427968	67.685445	63.991547
25.480397	87.998708	83.363851
25.532826	63.673655	60.685475
25.585254	79.739889	77.184041
25.637683	79.212189	76.293945
25.690112	62.026978	59.712728
25.742541	59.064229	55.351257
25.794970	73.006948	68.060557
25.847398	86.428324	83.961487
25.899827	182.425181	172.367096
25.952256	115.133921	108.394623
26.004685	64.334869	61.550141
26.057114	56.756338	56.184133
26.109542	70.285797	68.403880
26.161971	83.891551	81.513723
26.214400	69.122314	66.242218
26.266829	49.622853	48.313141
26.319258	56.470235	54.861704
26.371686	78.665416	74.558258
