29/10/2021	14:57
Experiment Type:	Sizing
Pseudo Cross Correlation
Scattering angle:	15.0
Duration (s):	60
Wavelength (nm):	660.0
Refractive index:	1.330
Viscosity (mPas):	0.973
Temperature (K):	294.3
Laser intensity (mW):	81.918000
Average Count rate  A (kHz):	67.3
Average Count rate  B (kHz):	64.2
Intercept:	0.3657
Cumulant 1st	-Inf
Cumulant 2nd	-Inf	NaN
Cumulant 3rd	-Inf	NaN

Lag time (s)         g2-1
1.250000E-8	0.166302
2.500000E-8	0.158138
3.750000E-8	0.143499
5.000000E-8	0.158419
6.250000E-8	0.154197
7.500000E-8	0.151476
8.750000E-8	0.148473
1.000000E-7	0.156542
1.125000E-7	0.141247
1.250000E-7	0.154290
1.375000E-7	0.161047
1.500000E-7	0.148285
1.625000E-7	0.150725
1.750000E-7	0.148848
1.875000E-7	0.149411
2.000000E-7	0.153164
2.125000E-7	0.149270
2.375000E-7	0.154338
2.625000E-7	0.148707
2.875000E-7	0.154900
3.125000E-7	0.143546
3.375000E-7	0.153962
3.625000E-7	0.151382
3.875000E-7	0.144907
4.125000E-7	0.152437
4.625000E-7	0.149857
5.125000E-7	0.153446
5.625000E-7	0.155393
6.125000E-7	0.154009
6.625000E-7	0.157927
7.125000E-7	0.151992
7.625000E-7	0.150420
8.125000E-7	0.150396
9.125000E-7	0.149950
1.012500E-6	0.151851
1.112500E-6	0.149294
1.212500E-6	0.147147
1.312500E-6	0.151992
1.412500E-6	0.151288
1.512500E-6	0.151159
1.612500E-6	0.153088
1.812500E-6	0.149863
2.012500E-6	0.147341
2.212500E-6	0.147892
2.412500E-6	0.151071
2.612500E-6	0.149311
2.812500E-6	0.150379
3.012500E-6	0.150754
3.212500E-6	0.150059
3.612500E-6	0.151082
4.012500E-6	0.148763
4.412500E-6	0.149402
4.812500E-6	0.150423
5.212500E-6	0.150162
5.612500E-6	0.150704
6.012500E-6	0.148716
6.412500E-6	0.148631
7.212500E-6	0.150813
8.012500E-6	0.150064
8.812500E-6	0.150116
9.612500E-6	0.151401
1.041250E-5	0.150536
1.121250E-5	0.150182
1.201250E-5	0.149106
1.281250E-5	0.150379
1.441250E-5	0.149122
1.601250E-5	0.150269
1.761250E-5	0.149402
1.921250E-5	0.150456
2.081250E-5	0.150970
2.241250E-5	0.149878
2.401250E-5	0.149100
2.561250E-5	0.149488
2.881250E-5	0.149560
3.201250E-5	0.149842
3.521250E-5	0.150493
3.841250E-5	0.149740
4.161250E-5	0.150016
4.481250E-5	0.149128
4.801250E-5	0.149778
5.121250E-5	0.149750
5.761250E-5	0.149043
6.401250E-5	0.149592
7.041250E-5	0.149126
7.681250E-5	0.149481
8.321250E-5	0.148859
8.961250E-5	0.148735
9.601250E-5	0.148823
0.000102	0.149080
0.000115	0.148720
0.000128	0.148660
0.000141	0.148798
0.000154	0.148312
0.000166	0.148119
0.000179	0.148112
0.000192	0.148527
0.000205	0.148005
0.000230	0.147706
0.000256	0.147478
0.000282	0.147455
0.000307	0.147180
0.000333	0.146950
0.000358	0.146676
0.000384	0.146384
0.000410	0.146145
0.000461	0.146027
0.000512	0.145582
0.000563	0.145438
0.000614	0.145149
0.000666	0.144621
0.000717	0.144124
0.000768	0.143862
0.000819	0.143531
0.000922	0.142779
0.001024	0.142233
0.001126	0.141494
0.001229	0.140988
0.001331	0.140326
0.001434	0.139882
0.001536	0.139279
0.001638	0.138664
0.001843	0.137522
0.002048	0.136526
0.002253	0.135480
0.002458	0.134491
0.002662	0.133397
0.002867	0.132410
0.003072	0.131401
0.003277	0.130547
0.003686	0.128607
0.004096	0.126706
0.004506	0.124846
0.004915	0.123198
0.005325	0.121336
0.005734	0.119650
0.006144	0.118019
0.006554	0.116414
0.007373	0.113217
0.008192	0.110226
0.009011	0.107356
0.009830	0.104686
0.010650	0.102102
0.011469	0.099555
0.012288	0.096954
0.013107	0.094551
0.014746	0.089915
0.016384	0.085605
0.018022	0.081341
0.019661	0.077456
0.021299	0.073733
0.022938	0.070369
0.024576	0.067052
0.026214	0.064043
0.029491	0.058211
0.032768	0.053037
0.036045	0.048480
0.039322	0.044244
0.042598	0.040150
0.045875	0.036194
0.049152	0.032966
0.052429	0.029885
0.058982	0.025240
0.065536	0.021961
0.072090	0.019950
0.078643	0.018848
0.085197	0.018155
0.091750	0.017757
0.098304	0.017421
0.104858	0.017341
0.117965	0.016665
0.131072	0.014508
0.144179	0.012005
0.157286	0.010440
0.170394	0.010681
0.183501	0.010189
0.196608	0.010389
0.209715	0.009624
0.235930	0.009006
0.262144	0.011036
0.288358	0.012057
0.314573	0.010481
0.340787	0.011120
0.367002	0.012415
0.393216	0.014618
0.419430	0.016579
0.471859	0.017653
0.524288	0.018584
0.576717	0.018071
0.629146	0.013023
0.681574	0.012591
0.734003	0.014208
0.786432	0.010586
0.838861	0.014364
0.943718	0.014009
1.048576	0.015602
1.153434	0.015785
1.258291	0.015795
1.363149	0.014682
1.468006	0.015512
1.572864	0.015026
1.677722	0.013164
1.887437	0.014604
2.097152	0.016392
2.306867	0.014119
2.516582	0.014612
2.726298	0.015328
2.936013	0.016486
3.145728	0.017191
3.355443	0.016075
3.774873	0.016040
4.194304	0.017422
4.613734	0.017584
5.033165	0.018085
5.452595	0.017450
5.872025	0.016747
6.291456	0.018119
6.710886	0.017678
7.549747	0.016573
8.388608	0.016315
9.227468	0.019201
10.066330	0.017442
10.905190	0.016809
11.744051	0.011859
12.582912	0.013228
13.421773	0.015040
15.099494	0.012771
16.777216	0.011760
18.454937	0.011926
20.132660	0.007080
21.810381	0.003643
23.488102	0.003998
25.165825	0.002819
26.843546	-0.002721
30.198988	-0.013845
33.554432	-0.026691
36.909874	-0.034933
40.265320	-0.028123
43.620762	-0.014436

Count Rate History (KHz)  CR CHA / CR CHB
0.000000	13.465881	12.931824
0.052429	17.616272	15.769958
0.104858	13.038635	13.298035
0.157286	14.335632	14.343262
0.209715	18.707275	18.539429
0.262144	20.584106	19.798279
0.314573	15.663147	15.106201
0.367002	18.722534	17.326355
0.419430	19.943237	18.341064
0.471859	15.457153	14.556885
0.524288	15.457153	15.296936
0.576717	16.952515	16.372681
0.629146	15.937805	15.167236
0.681574	17.875671	17.478943
0.734003	19.363403	18.981934
0.786432	27.954102	25.741577
0.838861	33.180237	31.837463
0.891290	25.772095	24.131775
0.943718	16.387940	15.304566
0.996147	28.778076	27.664184
1.048576	20.187378	18.531799
1.101005	20.080566	19.973755
1.153434	17.066956	16.365051
1.205862	13.694763	13.771057
1.258291	18.684387	18.218994
1.310720	15.754700	15.777588
1.363149	13.603210	12.725830
1.415578	23.971558	22.270203
1.468006	17.639160	17.379761
1.520435	15.914917	15.525818
1.572864	18.157959	17.906189
1.625293	18.402100	16.952515
1.677722	23.391724	22.552490
1.730150	13.877869	14.060974
1.782579	19.622803	18.646240
1.835008	14.602661	14.282226
1.887437	19.622803	19.203186
1.939866	24.452210	24.162292
1.992294	24.124146	22.903442
2.044723	16.319275	16.067505
2.097152	15.251160	15.060425
2.149581	14.701843	15.098572
2.202010	15.380859	14.587402
2.254438	27.206421	26.145935
2.306867	31.860352	29.914856
2.359296	22.811890	21.751404
2.411725	34.477234	34.141540
2.464154	39.840698	38.124084
2.516582	27.565002	26.504517
2.569011	28.808594	26.992798
2.621440	41.297912	38.665772
2.673869	22.811890	21.492004
2.726298	31.372070	29.151916
2.778726	19.500732	19.264221
2.831155	24.658203	23.399353
2.883584	27.198792	25.863648
2.936013	16.456604	15.373230
2.988442	12.786865	12.229920
3.040870	24.665832	23.628235
3.093299	21.415710	20.408630
3.145728	26.863098	25.474548
3.198157	21.453858	20.973206
3.250586	28.518677	27.519226
3.303014	26.618958	25.756836
3.355443	15.617371	15.548706
3.407872	18.211365	18.203735
3.460301	33.073425	31.921387
3.512730	48.896790	45.211792
3.565158	26.710510	25.062561
3.617587	60.279846	56.900024
3.670016	60.623169	55.252075
3.722445	34.873962	33.744812
3.774874	25.215149	23.635864
3.827302	15.754700	16.181946
3.879731	16.296387	15.670776
3.932160	16.128540	16.059876
3.984589	17.738342	16.967774
4.037018	28.137207	25.856018
4.089446	18.402100	17.417908
4.141875	55.496216	53.123474
4.194304	16.777038	17.112732
4.246733	15.716553	15.518188
4.299162	16.777038	16.326904
4.351590	16.647339	16.456604
4.404019	15.617371	14.633179
4.456448	34.019470	32.989502
4.508877	40.054321	37.445068
4.561306	30.944824	29.869080
4.613734	20.904541	19.409180
4.666163	12.573242	11.947632
4.718592	24.055481	23.941040
4.771021	35.659790	34.759522
4.823450	21.263122	20.126343
4.875878	17.196655	16.448975
4.928307	16.830444	15.663147
4.980736	21.682739	20.538330
5.033165	23.117066	21.850586
5.085594	33.302307	31.448364
5.138022	35.316467	33.447266
5.190451	18.562317	18.234253
5.242880	29.006958	25.848389
5.295309	15.327454	15.396118
5.347738	25.985718	24.353027
5.400166	19.653320	19.317627
5.452595	16.265869	15.701294
5.505024	18.470764	16.891480
5.557453	25.794983	24.627686
5.609882	55.793762	52.940369
5.662310	41.145325	38.032532
5.714739	45.608520	44.067383
5.767168	20.080566	19.004822
5.819597	17.318726	16.883850
5.872026	14.984131	14.961243
5.924454	16.807556	15.342712
5.976883	15.640259	15.022278
6.029312	14.694214	14.869690
6.081741	17.692566	17.555237
6.134170	29.823303	27.297974
6.186598	14.839172	14.205933
6.239027	14.930725	14.938354
6.291456	24.604797	23.406982
6.343885	24.551392	22.537232
6.396314	21.751404	20.286560
6.448742	27.320862	25.878906
6.501171	28.961182	28.991699
6.553600	22.590637	22.003174
6.606029	24.246216	23.399353
6.658458	21.987915	20.278931
6.710886	53.680420	51.002502
6.763315	53.344726	50.346374
6.815744	31.341553	29.129028
6.868173	19.477844	19.081116
6.920602	20.347595	19.500732
6.973030	13.343811	12.924194
7.025459	25.924683	25.581360
7.077888	20.370483	18.928528
7.130317	15.335083	15.556336
7.182746	20.950317	19.645691
7.235174	23.010254	21.720886
7.287603	24.917602	24.414062
7.340032	25.970459	24.757385
7.392461	28.533936	26.679993
7.444890	38.772583	36.476135
7.497318	38.284302	35.964966
7.549747	30.242920	29.006958
7.602176	28.976440	28.282166
7.654605	24.116516	23.551941
7.707034	20.713806	18.287659
7.759462	33.058166	32.241821
7.811891	33.683777	31.120300
7.864320	21.492004	21.072388
7.916749	31.883240	30.220032
7.969178	36.094666	34.912109
8.021606	36.659241	33.836365
8.074035	19.424438	18.913269
8.126464	21.362305	20.210266
8.178893	38.360596	35.675049
8.231322	26.054382	24.414062
8.283750	15.342712	14.602661
8.336179	16.143799	15.823364
8.388608	14.083862	13.580322
8.441037	14.915466	14.297485
8.493466	25.962830	24.612427
8.545894	30.418396	29.022217
8.598323	33.149719	31.867981
8.650752	12.580872	12.741089
8.703181	29.136658	27.130127
8.755610	27.221680	25.115967
8.808038	36.521912	33.561706
8.860467	24.284363	22.918701
8.912896	16.716004	15.686035
8.965325	21.942139	21.781921
9.017754	57.052612	53.710938
9.070182	18.432617	16.990662
9.122611	23.300171	22.560120
9.175040	20.446777	19.943237
9.227469	28.404236	27.610779
9.279898	44.998169	43.106079
9.332326	70.770264	66.520691
9.384755	41.038513	38.261414
9.437184	23.628235	23.429871
9.489613	29.159546	28.327942
9.542042	17.715454	17.127991
9.594470	15.869141	15.113830
9.646899	20.530701	19.165039
9.699328	13.008118	13.114929
9.751757	20.332336	20.385742
9.804186	28.182983	27.656555
9.856614	62.438965	58.006287
9.909043	29.304504	27.740478
9.961472	15.991211	14.900208
10.013901	16.159058	15.388489
10.066330	63.575745	59.585571
10.118758	18.402100	17.494202
10.171187	19.256592	19.195557
10.223616	27.244568	25.756836
10.276045	20.469666	20.332336
10.328474	50.331116	49.240112
10.380902	23.338318	21.743774
10.433331	18.249512	17.135620
10.485760	19.920349	19.615173
10.538189	20.614624	19.935608
10.590618	17.150879	16.189575
10.643046	20.294190	19.897461
10.695475	20.431518	19.729614
10.747904	23.674011	23.246765
10.800333	34.904480	33.729553
10.852762	31.715393	30.944824
10.905190	24.574280	23.025513
10.957619	29.190064	27.435303
11.010048	29.357910	28.175354
11.062477	23.063660	22.148132
11.114906	15.663147	15.403748
11.167334	21.095276	20.858765
11.219763	32.936096	31.509400
11.272192	47.958374	45.631409
11.324621	31.631470	30.372620
11.377050	37.109375	35.140991
11.429478	70.663452	67.634582
11.481907	20.797730	18.966675
11.534336	19.676208	18.341064
11.586765	23.506164	22.949219
11.639194	27.969360	27.381897
11.691622	25.146484	22.888184
11.744051	27.572632	27.015686
11.796480	44.494629	42.549133
11.848909	24.673462	23.468018
11.901338	75.630188	70.892334
11.953766	31.921387	29.777527
12.006195	28.015137	25.810242
12.058624	29.243469	28.839111
12.111053	22.842407	21.102905
12.163482	24.917602	23.902893
12.215910	29.434204	28.076172
12.268339	28.854370	26.977539
12.320768	17.211914	16.616821
12.373197	17.082214	15.693664
12.425626	12.870788	12.687683
12.478054	19.645691	19.805908
12.530483	21.232605	20.408630
12.582912	28.625488	27.603150
12.635341	24.238586	22.132874
12.687770	21.278381	21.453858
12.740198	14.152527	13.717651
12.792627	26.725769	25.001526
12.845056	26.969910	25.207520
12.897485	51.849365	47.966004
12.949914	29.228210	27.999878
13.002342	17.288208	17.608642
13.054771	24.154663	23.422241
13.107200	27.763367	26.290894
13.159629	27.481079	25.939942
13.212058	17.341614	16.334534
13.264486	19.836426	19.279480
13.316915	15.396118	14.945984
13.369344	20.187378	19.233704
13.421773	46.676636	45.341492
13.474202	17.326355	17.211914
13.526630	15.769958	15.632629
13.579059	53.184509	49.446106
13.631488	69.252014	63.720703
13.683917	28.297424	28.320312
13.736346	29.273987	28.640747
13.788774	24.078369	23.544312
13.841203	22.041321	20.874024
13.893632	30.303955	29.136658
13.946061	15.663147	15.823364
13.998490	20.736694	19.981384
14.050918	18.966675	17.807007
14.103347	16.296387	15.693664
14.155776	41.564942	39.184570
14.208205	34.660339	32.699585
14.260634	28.747558	27.770996
14.313062	25.871277	24.230957
14.365491	23.155212	22.140503
14.417920	21.141052	20.606995
14.470349	16.578674	16.212463
14.522778	15.052796	14.335632
14.575206	16.426086	15.373230
14.627635	35.896301	33.889770
14.680064	15.739441	15.541077
14.732493	49.041748	45.745850
14.784922	57.052612	53.970337
14.837350	96.977234	91.575622
14.889779	45.738220	42.602539
14.942208	13.801575	13.305664
14.994637	40.222168	39.108276
15.047066	33.996582	32.035828
15.099494	23.887634	22.605896
15.151923	29.418945	27.755737
15.204352	31.089783	30.258179
15.256781	16.921997	15.884400
15.309210	15.602112	15.075684
15.361638	27.648926	26.443482
15.414067	43.663025	41.030884
15.466496	16.517639	15.457153
15.518925	19.355774	17.890930
15.571354	16.510010	16.113281
15.623782	27.427673	25.627136
15.676211	24.353027	23.704529
15.728640	21.530151	21.240234
15.781069	23.437500	22.125244
15.833498	27.343750	26.306152
15.885926	15.113830	14.785767
15.938355	34.561157	32.814026
15.990784	33.462524	32.379150
16.043213	64.529419	60.241699
16.095642	31.524658	30.441284
16.148070	86.502075	82.000732
16.200499	29.792786	27.404785
16.252928	24.467468	23.872376
16.305357	12.626648	12.557983
16.357786	16.761780	15.853882
16.410214	23.399353	22.361755
16.462643	20.355225	19.660950
16.515072	68.939209	65.055847
16.567501	58.425903	55.274963
16.619930	85.014343	80.718994
16.672358	31.471252	30.136108
16.724787	33.470154	31.761170
16.777216	36.933899	36.140442
16.829645	19.371033	19.180298
16.882074	13.916016	14.137268
16.934502	18.966675	19.065857
16.986931	46.318054	44.754028
17.039360	24.368286	23.910522
17.091789	41.641235	39.642334
17.144218	14.999390	14.640808
17.196646	17.890930	17.097473
17.249075	26.443482	24.513245
17.301504	40.695190	39.558411
17.353933	94.444275	89.385986
17.406362	24.986267	24.513245
17.458790	84.495544	80.352783
17.511219	54.908752	52.406311
17.563648	41.450500	39.016724
17.616077	16.082764	15.640259
17.668506	21.308899	19.752502
17.720934	17.601013	16.403198
17.773363	22.888184	20.874024
17.825792	65.093994	60.432434
17.878221	66.833496	62.416077
17.930650	57.189942	54.359436
17.983078	15.052796	14.389038
18.035507	31.570434	30.166626
18.087936	21.827698	21.408081
18.140365	45.494080	42.419434
18.192794	42.617798	40.336609
18.245222	16.822815	16.799927
18.297651	15.083313	14.892578
18.350080	48.767090	46.920776
18.402509	40.512085	38.490296
18.454938	46.211243	43.785095
18.507366	30.189514	28.350830
18.559795	31.173706	29.716492
18.612224	43.655396	41.435242
18.664653	46.867371	44.433594
18.717082	23.155212	22.605896
18.769510	17.517090	16.380310
18.821939	24.169922	23.117066
18.874368	29.655456	27.473450
18.926797	18.653870	17.127991
18.979226	20.935058	20.492554
19.031654	41.809082	39.505005
19.084083	72.662354	66.696167
19.136512	23.582458	22.445679
19.188941	50.086975	47.401428
19.241370	19.927978	18.539429
19.293798	21.316528	20.622254
19.346227	28.610230	28.305054
19.398656	19.508362	18.722534
19.451085	46.195984	43.319702
19.503514	40.451050	37.719726
19.555942	35.659790	34.416199
19.608371	71.456909	68.191528
19.660800	32.897949	31.074524
19.713229	31.387329	29.739380
19.765658	22.331238	21.972656
19.818086	34.233093	31.242371
19.870515	34.080505	31.822204
19.922944	46.981812	44.845581
19.975373	36.849976	36.079407
20.027802	24.887085	23.384094
20.080230	26.672363	24.795532
20.132659	56.167602	53.405762
20.185088	84.335327	80.108642
20.237517	58.547974	55.534363
20.289946	24.345398	22.117615
20.342374	21.163940	20.370483
20.394803	29.853821	28.327942
20.447232	22.171020	21.011352
20.499661	34.225464	33.409119
20.552090	24.742126	23.742676
20.604518	59.867859	57.327270
20.656947	23.658752	22.766113
20.709376	37.796020	37.712097
20.761805	27.328491	26.252746
20.814234	26.580810	26.046753
20.866662	60.684204	57.151794
20.919091	30.517578	29.602051
20.971520	21.827698	20.652771
21.023949	43.571472	41.900635
21.076378	50.491333	46.173096
21.128806	32.257080	30.677796
21.181235	41.740418	39.199829
21.233664	25.314331	23.811340
21.286093	66.474914	62.309265
21.338522	68.405151	64.727783
21.390950	21.049500	20.179748
21.443379	26.962280	26.206970
21.495808	36.041260	33.828735
21.548237	27.755737	26.084900
21.600666	36.918640	35.514832
21.653094	19.271850	18.394470
21.705523	54.702759	52.009582
21.757952	77.392578	73.753357
21.810381	20.378113	19.546509
21.862810	30.799866	30.456543
21.915238	63.880920	60.432434
21.967667	52.200317	50.117493
22.020096	34.286499	31.700134
22.072525	33.935547	32.569885
22.124954	35.675049	33.325195
22.177382	45.318604	43.785095
22.229811	24.925232	23.979187
22.282240	48.881531	47.592163
22.334669	20.118713	19.210816
22.387098	25.474548	24.375916
22.439526	21.644592	20.057678
22.491955	42.175293	39.192200
22.544384	66.528320	61.553955
22.596813	19.981384	18.974304
22.649242	16.944885	16.670227
22.701670	25.535584	24.566650
22.754099	27.214050	26.176453
22.806528	35.385132	33.020020
22.858957	42.358398	40.313721
22.911386	30.624390	29.495239
22.963814	24.383545	23.880005
23.016243	28.167725	27.214050
23.068672	20.462036	19.973755
23.121101	19.348144	18.203735
23.173530	32.569885	30.464172
23.225958	26.634216	24.597168
23.278387	29.449463	28.549194
23.330816	48.629761	44.342041
23.383245	26.878357	25.756836
23.435674	43.502808	41.786194
23.488102	47.897339	46.386719
23.540531	33.538818	32.180786
23.592960	21.080017	21.095276
23.645389	25.581360	24.772644
23.697818	20.423889	19.966126
23.750246	30.242920	29.228210
23.802675	53.619385	50.407410
23.855104	61.782837	59.082031
23.907533	57.334900	54.420471
23.959962	35.614014	33.813476
24.012390	30.059814	28.900146
24.064819	28.442383	27.488708
24.117248	26.473999	25.497436
24.169677	26.855469	27.023316
24.222106	49.560547	48.492432
24.274534	54.832458	51.933288
24.326963	28.533936	27.389526
24.379392	21.873474	21.148682
24.431821	17.829895	17.868042
24.484250	31.425476	31.196594
24.536678	20.263672	19.142151
24.589107	21.926880	20.606995
24.641536	38.322449	36.735535
24.693965	46.798706	43.655396
24.746394	28.472900	26.611328
24.798822	31.906128	29.914856
24.851251	33.096314	32.180786
24.903680	27.320862	26.184082
24.956109	23.307800	23.025513
25.008538	14.320374	13.481140
25.060966	16.159058	16.166687
25.113395	23.803711	23.208618
25.165824	28.091431	27.015686
25.218253	21.881104	21.041870
25.270682	43.212891	41.297912
25.323110	81.405640	76.438904
25.375539	69.595337	66.299438
25.427968	64.636230	60.569763
25.480397	30.120850	28.793335
25.532826	53.253174	50.285339
25.585254	25.810242	24.879456
25.637683	26.641846	25.688171
25.690112	27.633667	25.596619
25.742541	58.166504	55.427551
25.794970	30.891418	30.021668
25.847398	89.057922	83.068848
25.899827	56.861878	52.154541
25.952256	23.544312	21.804810
26.004685	31.097412	29.884338
26.057114	78.918457	71.830750
26.109542	54.733276	51.582336
26.161971	51.681518	48.690796
26.214400	40.420532	37.429810
26.266829	60.630798	57.670593
26.319258	30.456543	28.915405
26.371686	46.409607	44.258118
26.424115	41.267395	38.909912
